v(V),z(Ohms),phi(ยบ),cs(Farads)
0.000,3.88965e+04,-9.47471e+01,4.10584e-11
2.000,4.70639e+04,-9.52514e+01,3.39594e-11
4.000,5.32314e+04,-9.56315e+01,3.00437e-11
6.000,5.83290e+04,-9.59447e+01,2.74333e-11
8.000,6.37434e+04,-9.20633e+01,2.49843e-11
10.000,6.80587e+04,-9.23137e+01,2.34040e-11
12.000,7.22203e+04,-9.25536e+01,2.20593e-11
14.000,7.62933e+04,-9.27855e+01,2.08856e-11
16.000,8.04113e+04,-9.30282e+01,1.98203e-11
18.000,8.46209e+04,-9.32554e+01,1.88384e-11
20.000,8.89620e+04,-9.34993e+01,1.79237e-11
22.000,9.35527e+04,-9.37508e+01,1.70489e-11
24.000,9.84192e+04,-9.40138e+01,1.62109e-11
26.000,1.03757e+05,-9.43114e+01,1.53828e-11
28.000,1.09497e+05,-9.46288e+01,1.45826e-11
30.000,1.16030e+05,-9.49800e+01,1.37687e-11
32.000,1.23557e+05,-9.54064e+01,1.29387e-11
34.000,1.32652e+05,-9.59035e+01,1.20619e-11
36.000,1.44240e+05,-9.65343e+01,1.11062e-11
38.000,1.59850e+05,-9.73785e+01,1.00397e-11
40.000,1.82392e+05,-9.85631e+01,8.82436e-12
42.000,2.17070e+05,-1.00375e+02,7.45383e-12
44.000,2.74656e+05,-1.03189e+02,5.95169e-12
46.000,3.73522e+05,-1.07759e+02,4.47412e-12
48.000,5.59422e+05,-1.15554e+02,3.15348e-12
50.000,7.83725e+05,-1.24103e+02,2.45250e-12
52.000,8.86694e+05,-1.27659e+02,2.26729e-12
54.000,9.32444e+05,-1.29120e+02,2.20005e-12
56.000,9.74447e+05,-1.30406e+02,2.14490e-12
58.000,1.02459e+06,-1.31988e+02,2.08986e-12
60.000,1.08471e+06,-1.33936e+02,2.03754e-12
62.000,1.17108e+06,-1.36463e+02,1.97304e-12
64.000,1.28733e+06,-1.39578e+02,1.90669e-12
66.000,1.46479e+06,-1.43653e+02,1.83330e-12
68.000,1.76771e+06,-1.49552e+02,1.77675e-12
70.000,2.15696e+06,-1.55799e+02,1.80007e-12
72.000,2.36314e+06,-1.59182e+02,1.89539e-12
74.000,2.40339e+06,-1.59745e+02,1.91298e-12
76.000,2.43155e+06,-1.60311e+02,1.94293e-12
78.000,2.45263e+06,-1.60643e+02,1.95811e-12
80.000,2.46003e+06,-1.61188e+02,2.00634e-12
82.000,2.48803e+06,-1.61714e+02,2.03919e-12
84.000,2.50443e+06,-1.62178e+02,2.07736e-12
86.000,2.52855e+06,-1.62552e+02,2.09965e-12
88.000,2.54864e+06,-1.62908e+02,2.12482e-12
90.000,2.56472e+06,-1.63645e+02,2.20424e-12
92.000,2.58557e+06,-1.64135e+02,2.25218e-12
94.000,2.61252e+06,-1.64733e+02,2.31383e-12
96.000,2.62894e+06,-1.65143e+02,2.36117e-12
98.000,2.64615e+06,-1.65910e+02,2.47094e-12
100.000,2.68568e+06,-1.66693e+02,2.57550e-12
102.000,2.71595e+06,-1.67383e+02,2.68318e-12
104.000,2.74581e+06,-1.68432e+02,2.89299e-12
106.000,2.78227e+06,-1.69106e+02,3.02891e-12
108.000,2.81191e+06,-1.70149e+02,3.31109e-12
110.000,2.86355e+06,-1.71281e+02,3.66845e-12
112.000,2.90455e+06,-1.72684e+02,4.30490e-12
114.000,2.95664e+06,-1.73890e+02,5.06682e-12
116.000,3.02712e+06,-1.75415e+02,6.63782e-12
118.000,3.07875e+06,-1.77305e+02,1.10042e-11
120.000,3.15285e+06,-1.78949e+02,2.79634e-11
122.000,3.23426e+06,1.79075e+02,-3.36332e-11
124.000,3.27963e+06,1.76834e+02,-8.81721e-12
126.000,3.33246e+06,1.74739e+02,-5.21951e-12
128.000,3.39433e+06,1.72989e+02,-3.84249e-12
130.000,3.45381e+06,1.70723e+02,-2.86090e-12
132.000,3.47959e+06,1.68873e+02,-2.37032e-12
134.000,3.51795e+06,1.67585e+02,-2.10453e-12
136.000,3.53696e+06,1.65821e+02,-1.83781e-12
138.000,3.56533e+06,1.64398e+02,-1.66010e-12
140.000,3.57643e+06,1.63021e+02,-1.52407e-12
142.000,3.60019e+06,1.61587e+02,-1.39963e-12
144.000,3.61424e+06,1.60066e+02,-1.29176e-12
146.000,3.62356e+06,1.59188e+02,-1.23640e-12
148.000,3.61768e+06,1.58022e+02,-1.17567e-12
150.000,3.64115e+06,1.56628e+02,-1.10209e-12
152.000,3.63893e+06,1.55957e+02,-1.07366e-12
154.000,3.62132e+06,1.54392e+02,-1.01694e-12
156.000,3.63068e+06,1.53130e+02,-9.69935e-13
158.000,3.63201e+06,1.52321e+02,-9.43718e-13
160.000,3.63952e+06,1.51272e+02,-9.09835e-13
162.000,3.63703e+06,1.50492e+02,-8.88477e-13
164.000,3.61834e+06,1.49167e+02,-8.58242e-13
166.000,3.61526e+06,1.48469e+02,-8.41870e-13
168.000,3.60903e+06,1.47554e+02,-8.21999e-13
170.000,3.59872e+06,1.46933e+02,-8.10570e-13
172.000,3.58442e+06,1.45861e+02,-7.91279e-13
174.000,3.57042e+06,1.45450e+02,-7.86047e-13
176.000,3.56442e+06,1.44502e+02,-7.69001e-13
178.000,3.56919e+06,1.43963e+02,-7.58023e-13
180.000,3.55753e+06,1.43078e+02,-7.44777e-13
182.000,3.55455e+06,1.42664e+02,-7.38306e-13
184.000,3.54621e+06,1.41874e+02,-7.26949e-13
186.000,3.52589e+06,1.41261e+02,-7.21400e-13
188.000,3.51992e+06,1.40739e+02,-7.14544e-13
190.000,3.49842e+06,1.40450e+02,-7.14521e-13
192.000,3.51202e+06,1.39703e+02,-7.00705e-13
194.000,3.49119e+06,1.39120e+02,-6.96584e-13
196.000,3.49236e+06,1.38901e+02,-6.93268e-13
198.000,3.49266e+06,1.38534e+02,-6.88237e-13
200.000,3.46059e+06,1.37744e+02,-6.83956e-13
